File: XRD_graph/XRD_data/Bi2ZnB2O7_XRD/Bi2ZnB1.6C0.4O7_2doyaki.txt
2theta,Intensity
10,6.66667
10.18,6
10.36,7.33333
10.54,4.66667
10.72,4
10.9,6
11.08,4
11.26,8
11.44,8.66667
11.62,4.66667
11.8,8
11.98,6.66667
12.16,6
12.34,8
12.52,8
12.7,5.33333
12.88,9.33333
13.06,5.33333
13.24,8
13.42,9.33333
13.6,7.33333
13.78,4.66667
13.96,6
14.14,7.33333
14.32,10.6667
14.5,6.66667
14.68,7.33333
14.86,8
15.04,4
15.22,7.33333
15.4,8
15.58,10
15.76,9.33333
15.94,7.33333
16.12,10.6667
16.3,8.66667
16.48,12
16.66,16.6667
16.84,8.66667
17.02,8.66667
17.2,10
17.38,16
17.56,23.3333
17.74,12
17.92,28.6667
18.1,152
18.28,114.667
18.46,14.6667
18.64,12.6667
18.82,12.6667
19,7.33333
19.18,10
19.36,8.66667
19.54,7.33333
19.72,10.6667
19.9,8
20.08,6.66667
20.26,9.33333
20.44,8
20.62,8.66667
20.8,6.66667
20.98,7.33333
21.16,10.6667
21.34,14
21.52,30.6667
21.7,11.3333
21.88,9.33333
22.06,8.66667
22.24,6
22.42,7.33333
22.6,11.3333
22.78,14
22.96,54.6667
23.14,95.3333
23.32,11.3333
23.5,10.6667
23.68,12.6667
23.86,9.33333
24.04,10.6667
24.22,13.3333
24.4,32
24.58,55.3333
24.76,94.6667
24.94,103.333
25.12,23.3333
25.3,12.6667
25.48,35.3333
25.66,136
25.84,74
26.02,112
26.2,33.3333
26.38,13.3333
26.56,10.6667
26.74,10.6667
26.92,14
27.1,15.3333
27.28,16
27.46,26
27.64,82.6667
27.82,518.667
28,194
28.18,36
28.36,20
28.54,23.3333
28.72,16.6667
28.9,11.3333
29.08,19.3333
29.26,34.6667
29.44,249.333
29.62,222
29.8,26.6667
29.98,16
30.16,17.3333
30.34,33.3333
30.52,127.333
30.7,69.3333
30.88,16
31.06,10
31.24,14.6667
31.42,39.3333
31.6,244
31.78,110
31.96,257.333
32.14,32.6667
32.32,20
32.5,52.6667
32.68,30
32.86,60
33.04,356.667
33.22,208
33.4,36.6667
33.58,30.6667
33.76,17.3333
33.94,12.6667
34.12,22
34.3,16
34.48,27.3333
34.66,20.6667
34.84,26
35.02,11.3333
35.2,12
35.38,24.6667
35.56,18.6667
35.74,8.66667
35.92,11.3333
36.1,16.6667
36.28,50
36.46,38
36.64,46
36.82,107.333
37,76
37.18,30.6667
37.36,15.3333
37.54,36
37.72,52.6667
37.9,18.6667
38.08,25.3333
38.26,13.3333
38.44,29.3333
38.62,16
38.8,16
38.98,29.3333
39.16,10
39.34,9.33333
39.52,17.3333
39.7,44
39.88,56.6667
40.06,12.6667
40.24,10.6667
40.42,9.33333
40.6,10.6667
40.78,10
40.96,8
41.14,10.6667
41.32,27.3333
41.5,41.3333
41.68,60
41.86,93.3333
42.04,27.3333
42.22,12
42.4,6
42.58,18
42.76,16.6667
42.94,8.66667
43.12,8
43.3,8.66667
43.48,12
43.66,31.3333
43.84,75.3333
44.02,39.3333
44.2,12.6667
44.38,19.3333
44.56,14.6667
44.74,10
44.92,8.66667
45.1,9.33333
45.28,35.3333
45.46,104
45.64,161.333
45.82,54.6667
46,36.6667
46.18,20
46.36,12
46.54,9.33333
46.72,17.3333
46.9,14
47.08,12
47.26,9.33333
47.44,11.3333
47.62,22
47.8,26.6667
47.98,17.3333
48.16,15.3333
48.34,52.6667
48.52,49.3333
48.7,15.3333
48.88,62.6667
49.06,34
49.24,48
49.42,26.6667
49.6,20
49.78,20.6667
49.96,21.3333
50.14,17.3333
50.32,36
50.5,40.6667
50.68,42.6667
50.86,26
51.04,26
51.22,14.6667
51.4,14.6667
51.58,14.6667
51.76,13.3333
51.94,14.6667
52.12,62
52.3,39.3333
52.48,104.667
52.66,223.333
52.84,117.333
53.02,42.6667
53.2,54.6667
53.38,33.3333
53.56,24.6667
53.74,19.3333
53.92,40
54.1,57.3333
54.28,140.667
54.46,72
54.64,16.6667
54.82,17.3333
55,14
55.18,14
55.36,17.3333
55.54,20
55.72,45.3333
55.9,120.667
56.08,69.3333
56.26,18.6667
56.44,38.6667
56.62,44
56.8,42.6667
56.98,43.3333
57.16,32
57.34,40.6667
57.52,28.6667
57.7,19.3333
57.88,8
58.06,13.3333
58.24,10.6667
58.42,10.6667
58.6,9.33333
58.78,8.66667
58.96,31.3333
59.14,35.3333
59.32,20
59.5,20.6667
59.68,7.33333
59.86,17.3333
60,10