File: XRD_graph/XRD_data/Bi2ZnB2O7_XRD/Bi2ZnB2O7_3kome.txt
2theta,Intensity
10,7
10.18,8
10.36,10
10.54,4
10.72,4
10.9,4
11.08,7
11.26,4
11.44,10
11.62,3
11.8,9
11.98,8
12.16,5
12.34,8
12.52,11
12.7,9
12.88,6
13.06,11
13.24,5
13.42,8
13.6,5
13.78,2
13.96,8
14.14,6
14.32,8
14.5,7
14.68,6
14.86,8
15.04,6
15.22,15
15.4,8
15.58,7
15.76,13
15.94,18
16.12,13
16.3,7
16.48,6
16.66,14
16.84,7
17.02,13
17.2,11
17.38,16
17.56,17
17.74,15
17.92,83
18.1,259
18.28,37
18.46,15
18.64,11
18.82,7
19,7
19.18,7
19.36,5
19.54,11
19.72,9
19.9,7
20.08,9
20.26,13
20.44,4
20.62,8
20.8,10
20.98,8
21.16,10
21.34,24
21.52,17
21.7,11
21.88,9
22.06,8
22.24,11
22.42,10
22.6,13
22.78,32
22.96,180
23.14,45
23.32,8
23.5,16
23.68,8
23.86,12
24.04,18
24.22,24
24.4,46
24.58,65
24.76,122
24.94,30
25.12,17
25.3,21
25.48,88
25.66,213
25.84,98
26.02,160
26.2,26
26.38,10
26.56,10
26.74,11
26.92,16
27.1,14
27.28,13
27.46,42
27.64,166
27.82,404
28,43
28.18,21
28.36,18
28.54,9
28.72,14
28.9,13
29.08,34
29.26,97
29.44,500
29.62,90
29.8,25
29.98,14
30.16,17
30.34,43
30.52,103
30.7,18
30.88,13
31.06,12
31.24,25
31.42,106
31.6,331
31.78,248
31.96,162
32.14,23
32.32,28
32.5,65
32.68,32
32.86,92
33.04,348
33.22,62
33.4,20
33.58,30
33.76,18
33.94,14
34.12,46
34.3,17
34.48,24
34.66,21
34.84,18
35.02,14
35.2,12
35.38,24
35.56,10
35.74,12
35.92,10
36.1,24
36.28,44
36.46,29
36.64,78
36.82,76
37,109
37.18,14
37.36,16
37.54,51
37.72,25
37.9,26
38.08,16
38.26,17
38.44,35
38.62,16
38.8,29
38.98,33
39.16,14
39.34,10
39.52,18
39.7,46
39.88,13
40.06,6
40.24,3
40.42,12
40.6,12
40.78,8
40.96,10
41.14,23
41.32,19
41.5,49
41.68,75
41.86,61
42.04,16
42.22,10
42.4,15
42.58,18
42.76,11
42.94,8
43.12,5
43.3,10
43.48,14
43.66,54
43.84,71
44.02,19
44.2,16
44.38,22
44.56,10
44.74,10
44.92,13
45.1,14
45.28,132
45.46,127
45.64,140
45.82,46
46,34
46.18,19
46.36,9
46.54,21
46.72,15
46.9,6
47.08,13
47.26,8
47.44,11
47.62,24
47.8,16
47.98,12
48.16,19
48.34,97
48.52,36
48.7,47
48.88,95
49.06,24
49.24,27
49.42,18
49.6,25
49.78,29
49.96,32
50.14,22
50.32,59
50.5,51
50.68,43
50.86,24
51.04,19
51.22,19
51.4,16
51.58,14
51.76,9
51.94,25
52.12,77
52.3,47
52.48,176
52.66,176
52.84,63
53.02,36
53.2,74
53.38,47
53.56,29
53.74,25
53.92,63
54.1,98
54.28,107
54.46,31
54.64,14
54.82,21
55,17
55.18,13
55.36,11
55.54,20
55.72,43
55.9,73
56.08,34
56.26,18
56.44,49
56.62,40
56.8,48
56.98,31
57.16,44
57.34,42
57.52,14
57.7,15
57.88,13
58.06,7
58.24,14
58.42,5
58.6,15
58.78,25
58.96,35
59.14,26
59.32,17
59.5,10
59.68,9
59.86,15
60,13