File: XRD_graph/XRD_data/Bi2ZnB2O7_XRD/Bi2Zn0.8Ga0.2B2O7_2doyaki.txt
2theta,Intensity
10,4
10.18,6
10.36,5
10.54,7
10.72,8
10.9,5
11.08,4
11.26,1
11.44,5
11.62,5
11.8,5
11.98,4
12.16,8
12.34,9
12.52,6
12.7,6
12.88,3
13.06,5
13.24,8
13.42,2
13.6,4
13.78,5
13.96,8
14.14,4
14.32,5
14.5,5
14.68,6
14.86,6
15.04,5
15.22,3
15.4,6
15.58,2
15.76,7
15.94,3
16.12,6
16.3,7
16.48,5
16.66,1
16.84,9
17.02,6
17.2,7
17.38,5
17.56,6
17.74,12
17.92,34
18.1,67
18.28,9
18.46,7
18.64,7
18.82,6
19,6
19.18,8
19.36,4
19.54,7
19.72,5
19.9,6
20.08,6
20.26,5
20.44,6
20.62,4
20.8,9
20.98,6
21.16,8
21.34,10
21.52,7
21.7,8
21.88,5
22.06,10
22.24,7
22.42,4
22.6,8
22.78,11
22.96,38
23.14,10
23.32,4
23.5,7
23.68,6
23.86,4
24.04,4
24.22,11
24.4,13
24.58,22
24.76,30
24.94,9
25.12,9
25.3,5
25.48,40
25.66,37
25.84,33
26.02,19
26.2,13
26.38,7
26.56,7
26.74,7
26.92,3
27.1,4
27.28,16
27.46,18
27.64,75
27.82,101
28,10
28.18,11
28.36,7
28.54,4
28.72,8
28.9,16
29.08,12
29.26,50
29.44,163
29.62,14
29.8,10
29.98,6
30.16,9
30.34,33
30.52,43
30.7,10
30.88,7
31.06,6
31.24,11
31.42,75
31.6,60
31.78,76
31.96,25
32.14,13
32.32,10
32.5,18
32.68,13
32.86,57
33.04,88
33.22,18
33.4,12
33.58,9
33.76,4
33.94,4
34.12,7
34.3,7
34.48,10
34.66,17
34.84,9
35.02,6
35.2,6
35.38,10
35.56,10
35.74,11
35.92,8
36.1,9
36.28,14
36.46,12
36.64,29
36.82,34
37,26
37.18,9
37.36,9
37.54,16
37.72,8
37.9,9
38.08,6
38.26,13
38.44,10
38.62,5
38.8,12
38.98,6
39.16,7
39.34,3
39.52,15
39.7,18
39.88,5
40.06,8
40.24,8
40.42,7
40.6,2
40.78,5
40.96,7
41.14,15
41.32,16
41.5,18
41.68,35
41.86,10
42.04,7
42.22,7
42.4,9
42.58,9
42.76,2
42.94,5
43.12,7
43.3,6
43.48,14
43.66,24
43.84,23
44.02,6
44.2,10
44.38,7
44.56,5
44.74,7
44.92,7
45.1,14
45.28,52
45.46,60
45.64,51
45.82,25
46,16
46.18,7
46.36,4
46.54,8
46.72,11
46.9,5
47.08,6
47.26,8
47.44,5
47.62,13
47.8,13
47.98,8
48.16,12
48.34,30
48.52,8
48.7,41
48.88,15
49.06,20
49.24,15
49.42,4
49.6,8
49.78,15
49.96,16
50.14,14
50.32,19
50.5,16
50.68,15
50.86,11
51.04,10
51.22,9
51.4,10
51.58,13
51.76,5
51.94,20
52.12,25
52.3,33
52.48,75
52.66,59
52.84,25
53.02,21
53.2,22
53.38,17
53.56,13
53.74,10
53.92,38
54.1,46
54.28,37
54.46,18
54.64,12
54.82,4
55,7
55.18,10
55.36,9
55.54,14
55.72,43
55.9,31
56.08,21
56.26,19
56.44,19
56.62,16
56.8,22
56.98,17
57.16,17
57.34,16
57.52,12
57.7,14
57.88,3
58.06,11
58.24,8
58.42,8
58.6,6
58.78,15
58.96,16
59.14,8
59.32,8
59.5,7
59.68,3
59.86,7
60,11