File: XRD_graph/XRD_data/Bi2ZnB2O7_XRD/Bi2ZnB2O7_2kome_2doyaki.txt
2theta,Intensity
10,5.33333
10.18,2.66667
10.36,4
10.54,8
10.72,2.66667
10.9,4.66667
11.08,5.33333
11.26,4
11.44,7.33333
11.62,3.33333
11.8,7.33333
11.98,4
12.16,10
12.34,7.33333
12.52,5.33333
12.7,6.66667
12.88,7.33333
13.06,4
13.24,9.33333
13.42,7.33333
13.6,5.33333
13.78,7.33333
13.96,5.33333
14.14,6
14.32,5.33333
14.5,6.66667
14.68,5.33333
14.86,6.66667
15.04,3.33333
15.22,6
15.4,9.33333
15.58,3.33333
15.76,10.6667
15.94,23.3333
16.12,5.33333
16.3,8
16.48,4.66667
16.66,5.33333
16.84,4.66667
17.02,6.66667
17.2,10.6667
17.38,12
17.56,10
17.74,12.6667
17.92,37.3333
18.1,38.6667
18.28,10
18.46,6.66667
18.64,6.66667
18.82,8.66667
19,8.66667
19.18,8
19.36,4
19.54,6
19.72,7.33333
19.9,7.33333
20.08,5.33333
20.26,4.66667
20.44,7.33333
20.62,7.33333
20.8,14
20.98,4.66667
21.16,4.66667
21.34,8
21.52,5.33333
21.7,6
21.88,9.33333
22.06,12
22.24,17.3333
22.42,26.6667
22.6,14
22.78,45.3333
22.96,30.6667
23.14,9.33333
23.32,6.66667
23.5,7.33333
23.68,7.33333
23.86,10
24.04,5.33333
24.22,11.3333
24.4,17.3333
24.58,13.3333
24.76,20
24.94,7.33333
25.12,8.66667
25.3,11.3333
25.48,33.3333
25.66,30
25.84,35.3333
26.02,20.6667
26.2,22
26.38,10.6667
26.56,11.3333
26.74,42
26.92,14
27.1,8
27.28,14
27.46,12
27.64,45.3333
27.82,29.3333
28,18
28.18,14.6667
28.36,28
28.54,124
28.72,109.333
28.9,74.6667
29.08,36
29.26,74
29.44,78.6667
29.62,10.6667
29.8,8.66667
29.98,16.6667
30.16,22
30.34,23.3333
30.52,14.6667
30.7,10.6667
30.88,8.66667
31.06,12
31.24,26
31.42,79.3333
31.6,41.3333
31.78,83.3333
31.96,17.3333
32.14,16
32.32,22.6667
32.5,20
32.68,14
32.86,29.3333
33.04,34
33.22,13.3333
33.4,13.3333
33.58,8
33.76,6.66667
33.94,10.6667
34.12,6
34.3,10
34.48,8.66667
34.66,10.6667
34.84,7.33333
35.02,7.33333
35.2,15.3333
35.38,18.6667
35.56,24
35.74,18
35.92,24
36.1,28.6667
36.28,31.3333
36.46,39.3333
36.64,31.3333
36.82,25.3333
37,15.3333
37.18,16.6667
37.36,14.6667
37.54,12.6667
37.72,8
37.9,10.6667
38.08,5.33333
38.26,6
38.44,8
38.62,10
38.8,12
38.98,14
39.16,8.66667
39.34,7.33333
39.52,8.66667
39.7,10
39.88,6.66667
40.06,7.33333
40.24,5.33333
40.42,5.33333
40.6,4.66667
40.78,3.33333
40.96,7.33333
41.14,10
41.32,12
41.5,10.6667
41.68,15.3333
41.86,3.33333
42.04,12
42.22,14
42.4,13.3333
42.58,9.33333
42.76,6.66667
42.94,8
43.12,17.3333
43.3,13.3333
43.48,10.6667
43.66,23.3333
43.84,15.3333
44.02,18
44.2,11.3333
44.38,9.33333
44.56,6.66667
44.74,24.6667
44.92,12.6667
45.1,16
45.28,41.3333
45.46,48.6667
45.64,21.3333
45.82,38.6667
46,20
46.18,9.33333
46.36,12
46.54,10
46.72,8.66667
46.9,14.6667
47.08,12.6667
47.26,9.33333
47.44,12.6667
47.62,15.3333
47.8,12
47.98,12
48.16,16.6667
48.34,18
48.52,28
48.7,32
48.88,16
49.06,26.6667
49.24,22.6667
49.42,32
49.6,14.6667
49.78,16.6667
49.96,18.6667
50.14,38.6667
50.32,28
50.5,20.6667
50.68,22.6667
50.86,9.33333
51.04,11.3333
51.22,7.33333
51.4,12
51.58,8.66667
51.76,12
51.94,24
52.12,18.6667
52.3,19.3333
52.48,40.6667
52.66,30
52.84,19.3333
53.02,20.6667
53.2,22.6667
53.38,14
53.56,15.3333
53.74,12.6667
53.92,26
54.1,32
54.28,24
54.46,9.33333
54.64,11.3333
54.82,8
55,10
55.18,9.33333
55.36,10
55.54,12
55.72,24
55.9,23.3333
56.08,19.3333
56.26,16
56.44,22.6667
56.62,28.6667
56.8,34
56.98,15.3333
57.16,19.3333
57.34,18
57.52,12
57.7,8.66667
57.88,8.66667
58.06,9.33333
58.24,7.33333
58.42,12
58.6,17.3333
58.78,14.6667
58.96,16
59.14,12
59.32,11.3333
59.5,12.6667
59.68,12.6667
59.86,10.6667
60,9.33333