File: XRD_graph/XRD_data/ICSD/Li2ZnSn3O8_xy_ICSD.csv
2theta,Intensity
0.1,0.0
0.3,0.0
0.5,0.0
0.7,0.0
0.9,0.0
1.1,0.0
1.3,0.0
1.5,0.0
1.7,0.0
1.9,0.0
2.1,0.0
2.3,0.0
2.5,0.0
2.7,0.0
2.9,0.0
3.1,0.0
3.3,0.0
3.5,0.0
3.7,0.0
3.9,0.0
4.1,0.0
4.3,0.0
4.5,0.0
4.7,0.0
4.9,0.0
5.1,0.0
5.3,0.0
5.5,0.0
5.7,0.0
5.9,0.0
6.1,0.0
6.3,0.0
6.5,0.0
6.7,0.0
6.9,0.0
7.1,0.0
7.3,0.0
7.5,0.0
7.7,0.0
7.9,0.0
8.1,0.0
8.3,0.0
8.5,0.0
8.7,0.0
8.9,0.0
9.1,0.0
9.3,0.0
9.5,179.0
9.7,1306.0
9.9,318.0
10.1,1.0
10.3,0.0
10.5,0.0
10.7,0.0
10.9,0.0
11.1,0.0
11.3,0.0
11.5,0.0
11.7,0.0
11.9,0.0
12.1,0.0
12.3,0.0
12.5,0.0
12.7,0.0
12.9,5.0
13.1,479.0
13.3,1500.0
13.5,144.0
13.7,0.0
13.9,0.0
14.1,0.0
14.3,0.0
14.5,0.0
14.7,0.0
14.9,0.0
15.1,0.0
15.3,0.0
15.5,0.0
15.7,0.0
15.9,0.0
16.1,0.0
16.3,0.0
16.5,6.0
16.7,813.0
16.9,2884.0
17.1,289.0
17.3,0.0
17.5,0.0
17.7,0.0
17.9,613.0
18.1,2323.0
18.3,242.0
18.5,0.0
18.7,0.0
18.9,324.0
19.1,5523.0
19.3,3360.0
19.5,5587.0
19.7,981.0
19.9,0.0
20.1,0.0
20.3,37.0
20.5,670.0
20.7,318.0
20.9,4.0
21.1,0.0
21.3,928.0
21.5,8732.0
21.7,2089.0
21.9,0.0
22.1,0.0
22.3,0.0
22.5,0.0
22.7,0.0
22.9,0.0
23.1,0.0
23.3,0.0
23.5,0.0
23.7,0.0
23.9,0.0
24.1,0.0
24.3,0.0
24.5,115.0
24.7,7337.0
24.9,11077.0
25.1,395.0
25.3,0.0
25.5,0.0
25.7,278.0
25.9,1769.0
26.1,260.0
26.3,0.0
26.5,647.0
26.7,5461.0
26.9,1044.0
27.1,0.0
27.3,664.0
27.5,2577.0
27.7,223.0
27.9,0.0
28.1,0.0
28.3,0.0
28.5,0.0
28.7,3.0
28.9,145.0
29.1,158.0
29.3,1633.0
29.5,3432.0
29.7,155.0
29.9,0.0
30.1,0.0
30.3,0.0
30.5,0.0
30.7,3.0
30.9,7.0
31.1,0.0
31.3,0.0
31.5,66.0
31.7,1603.0
31.9,882.0
32.1,7856.0
32.3,13446.0
32.5,465.0
32.7,0.0
32.9,0.0
33.1,0.0
33.3,0.0
33.5,168.0
33.7,2527.0
33.9,1349.0
34.1,6717.0
34.3,1450.0
34.5,812.0
34.7,19562.0
34.9,9050.0
35.1,619.0
35.3,13498.0
35.5,6478.0
35.7,82.0
35.9,0.0
36.1,0.0
36.3,18.0
36.5,1382.0
36.7,2216.0
36.9,154.0
37.1,1.0
37.3,0.0
37.5,0.0
37.7,43.0
37.9,892.0
38.1,339.0
38.3,2.0
38.5,0.0
38.7,631.0
38.9,2961.0
39.1,247.0
39.3,8.0
39.5,483.0
39.7,526.0
39.9,14.0
40.1,134.0
40.3,72.0
40.5,228.0
40.7,1500.0
40.9,202.0
41.1,0.0
41.3,0.0
41.5,8.0
41.7,752.0
41.9,1137.0
42.1,29.0
42.3,0.0
42.5,0.0
42.7,0.0
42.9,0.0
43.1,0.0
43.3,2.0
43.5,0.0
43.7,336.0
43.9,1040.0
44.1,3074.0
44.3,3549.0
44.5,72.0
44.7,0.0
44.9,0.0
45.1,10.0
45.3,528.0
45.5,559.0
45.7,502.0
45.9,38.0
46.1,0.0
46.3,0.0
46.5,161.0
46.7,506.0
46.9,25.0
47.1,4.0
47.3,58.0
47.5,51.0
47.7,106.0
47.9,6.0
48.1,0.0
48.3,0.0
48.5,50.0
48.7,1010.0
48.9,314.0
49.1,0.0
49.3,538.0
49.5,5783.0
49.7,1254.0
49.9,42.0
50.1,353.0
50.3,53.0
50.5,307.0
50.7,1100.0
50.9,4956.0
51.1,1272.0
51.3,12.0
51.5,0.0
51.7,1.0
51.9,47.0
52.1,459.0
52.3,656.0
52.5,14.0
52.7,0.0
52.9,3.0
53.1,238.0
53.3,638.0
53.5,96.0
53.7,890.0
53.9,5262.0
54.1,6888.0
54.3,363.0
54.5,0.0
54.7,2.0
54.9,295.0
55.1,608.0
55.3,18.0
55.5,448.0
55.7,5213.0
55.9,874.0
56.1,386.0
56.3,774.0
56.5,146.0
56.7,1130.0
56.9,177.0
57.1,322.0
57.3,78.0
57.5,0.0
57.7,8.0
57.9,345.0
58.1,201.0
58.3,2.0
58.5,1482.0
58.7,13922.0
58.9,1853.0
59.1,117.0
59.3,38.0
59.5,161.0
59.7,256.0
59.9,73.0
60.0,38.0