File: XRD_graph/XRD_data/B2ZnBi2O7_2kome.txt
2theta,Intensity
10,4
10.18,6
10.36,8
10.54,7
10.72,7
10.9,7
11.08,7
11.26,7
11.44,8
11.62,7
11.8,4
11.98,5
12.16,11
12.34,33
12.52,17
12.7,17
12.88,52
13.06,9
13.24,10
13.42,8
13.6,8
13.78,9
13.96,9
14.14,22
14.32,35
14.5,14
14.68,12
14.86,18
15.04,8
15.22,7
15.4,5
15.58,18
15.76,16
15.94,61
16.12,23
16.3,7
16.48,9
16.66,15
16.84,9
17.02,16
17.2,11
17.38,18
17.56,26
17.74,19
17.92,14
18.1,16
18.28,14
18.46,9
18.64,8
18.82,9
19,13
19.18,16
19.36,8
19.54,18
19.72,13
19.9,9
20.08,14
20.26,15
20.44,13
20.62,18
20.8,34
20.98,17
21.16,14
21.34,13
21.52,12
21.7,11
21.88,13
22.06,20
22.24,61
22.42,67
22.6,36
22.78,123
22.96,95
23.14,20
23.32,22
23.5,17
23.68,32
23.86,80
24.04,19
24.22,18
24.4,17
24.58,24
24.76,48
24.94,29
25.12,18
25.3,11
25.48,9
25.66,24
25.84,26
26.02,44
26.2,59
26.38,30
26.56,29
26.74,65
26.92,117
27.1,50
27.28,94
27.46,119
27.64,86
27.82,168
28,66
28.18,41
28.36,48
28.54,207
28.72,507
28.9,391
29.08,116
29.26,156
29.44,29
29.62,28
29.8,20
29.98,30
30.16,171
30.34,98
30.52,51
30.7,23
30.88,23
31.06,22
31.24,30
31.42,77
31.6,67
31.78,85
31.96,22
32.14,33
32.32,47
32.5,69
32.68,75
32.86,42
33.04,135
33.22,72
33.4,20
33.58,23
33.76,18
33.94,18
34.12,22
34.3,10
34.48,34
34.66,14
34.84,14
35.02,30
35.2,49
35.38,80
35.56,108
35.74,48
35.92,57
36.1,78
36.28,110
36.46,72
36.64,54
36.82,18
37,27
37.18,45
37.36,40
37.54,31
37.72,24
37.9,12
38.08,12
38.26,12
38.44,15
38.62,24
38.8,25
38.98,37
39.16,31
39.34,39
39.52,24
39.7,24
39.88,10
40.06,23
40.24,17
40.42,13
40.6,8
40.78,8
40.96,19
41.14,17
41.32,13
41.5,10
41.68,28
41.86,25
42.04,26
42.22,47
42.4,40
42.58,31
42.76,28
42.94,21
43.12,25
43.3,36
43.48,26
43.66,34
43.84,45
44.02,33
44.2,34
44.38,23
44.56,23
44.74,26
44.92,41
45.1,16
45.28,15
45.46,44
45.64,48
45.82,60
46,90
46.18,24
46.36,28
46.54,21
46.72,38
46.9,43
47.08,80
47.26,31
47.44,23
47.62,37
47.8,23
47.98,29
48.16,24
48.34,35
48.52,56
48.7,72
48.88,52
49.06,51
49.24,61
49.42,119
49.6,68
49.78,31
49.96,40
50.14,91
50.32,102
50.5,48
50.68,37
50.86,34
51.04,17
51.22,21
51.4,18
51.58,21
51.76,18
51.94,39
52.12,61
52.3,49
52.48,44
52.66,66
52.84,31
53.02,29
53.2,23
53.38,26
53.56,13
53.74,23
53.92,35
54.1,28
54.28,37
54.46,30
54.64,17
54.82,25
55,22
55.18,19
55.36,30
55.54,37
55.72,36
55.9,72
56.08,56
56.26,33
56.44,35
56.62,45
56.8,87
56.98,80
57.16,59
57.34,43
57.52,27
57.7,20
57.88,21
58.06,28
58.24,18
58.42,13
58.6,22
58.78,19
58.96,23
59.14,19
59.32,26
59.5,22
59.68,17
59.86,26
60,20