File: XRD_graph/XRD_data/B2ZnBi2O7.txt
2theta,Intensity
10,6
10.18,4
10.36,6
10.54,7
10.72,6
10.9,4
11.08,4
11.26,5
11.44,4
11.62,9
11.8,3
11.98,4
12.16,6
12.34,6
12.52,6
12.7,2
12.88,5
13.06,4
13.24,3
13.42,4
13.6,5
13.78,4
13.96,3
14.14,5
14.32,3
14.5,7
14.68,7
14.86,8
15.04,7
15.22,3
15.4,5
15.58,7
15.76,6
15.94,7
16.12,7
16.3,10
16.48,3
16.66,9
16.84,6
17.02,3
17.2,12
17.38,12
17.56,5
17.74,5
17.92,17
18.1,18
18.28,8
18.46,5
18.64,7
18.82,5
19,9
19.18,6
19.36,2
19.54,4
19.72,4
19.9,6
20.08,5
20.26,8
20.44,7
20.62,4
20.8,6
20.98,8
21.16,5
21.34,7
21.52,5
21.7,8
21.88,5
22.06,6
22.24,3
22.42,7
22.6,8
22.78,18
22.96,34
23.14,6
23.32,7
23.5,4
23.68,3
23.86,4
24.04,5
24.22,14
24.4,13
24.58,18
24.76,30
24.94,8
25.12,7
25.3,11
25.48,23
25.66,23
25.84,23
26.02,7
26.2,14
26.38,2
26.56,11
26.74,6
26.92,8
27.1,6
27.28,1
27.46,18
27.64,88
27.82,46
28,8
28.18,9
28.36,6
28.54,8
28.72,8
28.9,5
29.08,12
29.26,37
29.44,82
29.62,10
29.8,4
29.98,6
30.16,7
30.34,19
30.52,23
30.7,6
30.88,6
31.06,7
31.24,10
31.42,81
31.6,37
31.78,79
31.96,11
32.14,7
32.32,14
32.5,11
32.68,15
32.86,57
33.04,42
33.22,10
33.4,5
33.58,9
33.76,7
33.94,5
34.12,9
34.3,9
34.48,4
34.66,4
34.84,5
35.02,6
35.2,7
35.38,7
35.56,3
35.74,4
35.92,4
36.1,6
36.28,9
36.46,11
36.64,34
36.82,11
37,11
37.18,3
37.36,8
37.54,14
37.72,8
37.9,12
38.08,4
38.26,8
38.44,4
38.62,4
38.8,8
38.98,5
39.16,7
39.34,6
39.52,7
39.7,11
39.88,3
40.06,7
40.24,5
40.42,8
40.6,8
40.78,2
40.96,4
41.14,5
41.32,4
41.5,15
41.68,25
41.86,8
42.04,7
42.22,5
42.4,7
42.58,6
42.76,7
42.94,3
43.12,8
43.3,6
43.48,12
43.66,30
43.84,14
44.02,8
44.2,8
44.38,10
44.56,4
44.74,3
44.92,4
45.1,8
45.28,34
45.46,49
45.64,25
45.82,12
46,6
46.18,9
46.36,5
46.54,8
46.72,3
46.9,7
47.08,6
47.26,8
47.44,6
47.62,9
47.8,8
47.98,6
48.16,13
48.34,16
48.52,5
48.7,20
48.88,13
49.06,21
49.24,16
49.42,10
49.6,3
49.78,11
49.96,10
50.14,11
50.32,16
50.5,15
50.68,12
50.86,4
51.04,8
51.22,10
51.4,6
51.58,5
51.76,10
51.94,13
52.12,16
52.3,22
52.48,72
52.66,37
52.84,13
53.02,20
53.2,23
53.38,10
53.56,11
53.74,6
53.92,17
54.1,51
54.28,31
54.46,10
54.64,7
54.82,9
55,6
55.18,7
55.36,4
55.54,9
55.72,39
55.9,24
56.08,12
56.26,9
56.44,16
56.62,14
56.8,13
56.98,11
57.16,21
57.34,24
57.52,6
57.7,6
57.88,6
58.06,8
58.24,3
58.42,5
58.6,13
58.78,13
58.96,12
59.14,12
59.32,7
59.5,8
59.68,9
59.86,8
60,5