File: XRD_graph/XRD_data/Li1.6Zn1.6Sn2.8O8_xy_ICSD.csv
2theta,Intensity
0.1,0.0
0.3,0.0
0.5,0.0
0.7,0.0
0.9,0.0
1.1,0.0
1.3,0.0
1.5,0.0
1.7,0.0
1.9,0.0
2.1,0.0
2.3,0.0
2.5,0.0
2.7,0.0
2.9,0.0
3.1,0.0
3.3,0.0
3.5,0.0
3.7,0.0
3.9,0.0
4.1,0.0
4.3,0.0
4.5,0.0
4.7,0.0
4.9,0.0
5.1,0.0
5.3,0.0
5.5,0.0
5.7,0.0
5.9,0.0
6.1,0.0
6.3,0.0
6.5,0.0
6.7,0.0
6.9,0.0
7.1,0.0
7.3,0.0
7.5,0.0
7.7,0.0
7.9,0.0
8.1,0.0
8.3,0.0
8.5,0.0
8.7,0.0
8.9,0.0
9.1,0.0
9.3,0.0
9.5,0.0
9.7,0.0
9.9,0.0
10.1,0.0
10.3,0.0
10.5,0.0
10.7,0.0
10.9,0.0
11.1,0.0
11.3,0.0
11.5,0.0
11.7,0.0
11.9,0.0
12.1,0.0
12.3,0.0
12.5,0.0
12.7,0.0
12.9,0.0
13.1,0.0
13.3,0.0
13.5,0.0
13.7,0.0
13.9,0.0
14.1,0.0
14.3,0.0
14.5,0.0
14.7,0.0
14.9,0.0
15.1,0.0
15.3,0.0
15.5,0.0
15.7,0.0
15.9,0.0
16.1,0.0
16.3,0.0
16.5,5.0
16.7,689.0
16.9,2573.0
17.1,272.0
17.3,0.0
17.5,0.0
17.7,127.0
17.9,2085.0
18.1,941.0
18.3,12.0
18.5,0.0
18.7,0.0
18.9,727.0
19.1,7835.0
19.3,2265.0
19.5,18.0
19.7,0.0
19.9,0.0
20.1,0.0
20.3,0.0
20.5,0.0
20.7,0.0
20.9,0.0
21.1,0.0
21.3,0.0
21.5,0.0
21.7,0.0
21.9,0.0
22.1,0.0
22.3,0.0
22.5,0.0
22.7,0.0
22.9,0.0
23.1,0.0
23.3,0.0
23.5,0.0
23.7,0.0
23.9,0.0
24.1,0.0
24.3,0.0
24.5,1033.0
24.7,13337.0
24.9,4073.0
25.1,29.0
25.3,0.0
25.5,0.0
25.7,0.0
25.9,0.0
26.1,0.0
26.3,0.0
26.5,0.0
26.7,0.0
26.9,0.0
27.1,0.0
27.3,0.0
27.5,0.0
27.7,0.0
27.9,0.0
28.1,0.0
28.3,0.0
28.5,0.0
28.7,0.0
28.9,0.0
29.1,13.0
29.3,1396.0
29.5,3249.0
29.7,162.0
29.9,0.0
30.1,0.0
30.3,0.0
30.5,0.0
30.7,0.0
30.9,0.0
31.1,0.0
31.3,0.0
31.5,0.0
31.7,0.0
31.9,3463.0
32.1,14757.0
32.3,1274.0
32.5,0.0
32.7,0.0
32.9,0.0
33.1,0.0
33.3,0.0
33.5,0.0
33.7,0.0
33.9,537.0
34.1,6729.0
34.3,1641.0
34.5,3222.0
34.7,23789.0
34.9,3378.0
35.1,675.0
35.3,13896.0
35.5,5435.0
35.7,40.0
35.9,0.0
36.1,98.0
36.3,3043.0
36.5,1753.0
36.7,19.0
36.9,0.0
37.1,0.0
37.3,0.0
37.5,0.0
37.7,0.0
37.9,0.0
38.1,0.0
38.3,0.0
38.5,17.0
38.7,1569.0
38.9,2533.0
39.1,73.0
39.3,0.0
39.5,0.0
39.7,0.0
39.9,0.0
40.1,9.0
40.3,181.0
40.5,63.0
40.7,0.0
40.9,0.0
41.1,0.0
41.3,0.0
41.5,0.0
41.7,0.0
41.9,0.0
42.1,0.0
42.3,0.0
42.5,0.0
42.7,0.0
42.9,0.0
43.1,0.0
43.3,0.0
43.5,0.0
43.7,0.0
43.9,829.0
44.1,5759.0
44.3,653.0
44.5,0.0
44.7,0.0
44.9,0.0
45.1,0.0
45.3,0.0
45.5,53.0
45.7,300.0
45.9,27.0
46.1,0.0
46.3,0.0
46.5,148.0
46.7,426.0
46.9,19.0
47.1,0.0
47.3,22.0
47.5,88.0
47.7,6.0
47.9,0.0
48.1,0.0
48.3,0.0
48.5,0.0
48.7,0.0
48.9,0.0
49.1,257.0
49.3,2181.0
49.5,4511.0
49.7,262.0
49.9,0.0
50.1,0.0
50.3,0.0
50.5,297.0
50.7,4653.0
50.9,1090.0
51.1,0.0
51.3,0.0
51.5,0.0
51.7,0.0
51.9,2.0
52.1,282.0
52.3,517.0
52.5,14.0
52.7,0.0
52.9,6.0
53.1,59.0
53.3,8.0
53.5,0.0
53.7,722.0
53.9,7639.0
54.1,1175.0
54.3,0.0
54.5,0.0
54.7,0.0
54.9,0.0
55.1,0.0
55.3,0.0
55.5,995.0
55.7,5781.0
55.9,979.0
56.1,15.0
56.3,0.0
56.5,0.0
56.7,0.0
56.9,0.0
57.1,0.0
57.3,0.0
57.5,0.0
57.7,0.0
57.9,0.0
58.1,26.0
58.3,4449.0
58.5,10640.0
58.7,519.0
58.9,70.0
59.1,0.0
59.3,0.0
59.5,2.0
59.7,78.0
59.9,63.0
60.0,13.0