File: XRD_graph/XRD_data/Li2.5Zn0.8Ga0.2Sn3O8_20241017.txt
2theta,Intensity
10,10.8333
10.18,5.83333
10.36,6.66667
10.54,6.66667
10.72,8.33333
10.9,5.83333
11.08,8.33333
11.26,5.83333
11.44,8.33333
11.62,6.66667
11.8,6.66667
11.98,7.5
12.16,6.66667
12.34,8.33333
12.52,16.6667
12.7,7.5
12.88,6.66667
13.06,20.8333
13.24,21.6667
13.42,6.66667
13.6,10
13.78,10.8333
13.96,5
14.14,10.8333
14.32,9.16667
14.5,5.83333
14.68,8.33333
14.86,3.33333
15.04,4.16667
15.22,10
15.4,10
15.58,9.16667
15.76,9.16667
15.94,13.3333
16.12,15
16.3,11.6667
16.48,12.5
16.66,17.5
16.84,65
17.02,12.5
17.2,27.5
17.38,19.1667
17.56,28.3333
17.74,54.1667
17.92,108.333
18.1,19.1667
18.28,17.5
18.46,15.8333
18.64,16.6667
18.82,42.5
19,210
19.18,108.333
19.36,110
19.54,85.8333
19.72,16.6667
19.9,16.6667
20.08,15
20.26,28.3333
20.44,40
20.62,10.8333
20.8,9.16667
20.98,13.3333
21.16,26.6667
21.34,130
21.52,141.667
21.7,25
21.88,11.6667
22.06,11.6667
22.24,7.5
22.42,9.16667
22.6,9.16667
22.78,7.5
22.96,10
23.14,11.6667
23.32,10.8333
23.5,14.1667
23.68,10
23.86,12.5
24.04,15
24.22,12.5
24.4,30.8333
24.58,186.667
24.76,236.667
24.94,24.1667
25.12,17.5
25.3,16.6667
25.48,10
25.66,15.8333
25.84,50.8333
26.02,18.3333
26.2,18.3333
26.38,25.8333
26.56,125.833
26.74,34.1667
26.92,14.1667
27.1,10
27.28,18.3333
27.46,56.6667
27.64,10
27.82,10
28,13.3333
28.18,9.16667
28.36,5
28.54,8.33333
28.72,18.3333
28.9,10.8333
29.08,9.16667
29.26,31.6667
29.44,108.333
29.62,14.1667
29.8,10
29.98,8.33333
30.16,14.1667
30.34,12.5
30.52,11.6667
30.7,7.5
30.88,7.5
31.06,8.33333
31.24,13.3333
31.42,11.6667
31.6,52.5
31.78,54.1667
31.96,271.667
32.14,221.667
32.32,28.3333
32.5,11.6667
32.68,15
32.86,15.8333
33.04,11.6667
33.22,10
33.4,21.6667
33.58,57.5
33.76,22.5
33.94,37.5
34.12,190
34.3,49.1667
34.48,71.6667
34.66,639.167
34.84,120
35.02,47.5
35.2,133.333
35.38,384.167
35.56,40
35.74,23.3333
35.92,26.6667
36.1,15.8333
36.28,72.5
36.46,50.8333
36.64,17.5
36.82,13.3333
37,13.3333
37.18,6.66667
37.36,10
37.54,5.83333
37.72,23.3333
37.9,20.8333
38.08,9.16667
38.26,8.33333
38.44,5.83333
38.62,15.8333
38.8,95
38.98,33.3333
39.16,7.5
39.34,3.33333
39.52,26.6667
39.7,17.5
39.88,5.83333
40.06,8.33333
40.24,13.3333
40.42,5
40.6,25
40.78,28.3333
40.96,10
41.14,8.33333
41.32,10
41.5,36.6667
41.68,25
41.86,25
42.04,9.16667
42.22,2.5
42.4,5.83333
42.58,3.33333
42.76,5.83333
42.94,6.66667
43.12,4.16667
43.3,8.33333
43.48,7.5
43.66,19.1667
43.84,32.5
44.02,138.333
44.2,105.833
44.38,13.3333
44.56,8.33333
44.74,8.33333
44.92,5.83333
45.1,21.6667
45.28,23.3333
45.46,10
45.64,15.8333
45.82,12.5
46,7.5
46.18,4.16667
46.36,5.83333
46.54,16.6667
46.72,25
46.9,5.83333
47.08,9.16667
47.26,8.33333
47.44,11.6667
47.62,6.66667
47.8,4.16667
47.98,3.33333
48.16,3.33333
48.34,9.16667
48.52,12.5
48.7,18.3333
48.88,13.3333
49.06,8.33333
49.24,54.1667
49.42,108.333
49.6,57.5
49.78,13.3333
49.96,15.8333
50.14,11.6667
50.32,32.5
50.5,14.1667
50.68,100.833
50.86,82.5
51.04,29.1667
51.22,13.3333
51.4,6.66667
51.58,5
51.76,6.66667
51.94,5
52.12,9.16667
52.3,20.8333
52.48,5.83333
52.66,5.83333
52.84,7.5
53.02,5.83333
53.2,15.8333
53.38,21.6667
53.56,20.8333
53.74,41.6667
53.92,201.667
54.1,115
54.28,35
54.46,11.6667
54.64,10.8333
54.82,25
55,18.3333
55.18,12.5
55.36,14.1667
55.54,28.3333
55.72,118.333
55.9,69.1667
56.08,19.1667
56.26,12.5
56.44,9.16667
56.62,24.1667
56.8,18.3333
56.98,11.6667
57.16,10.8333
57.34,8.33333
57.52,10.8333
57.7,10
57.88,20.8333
58.06,19.1667
58.24,37.5
58.42,294.167
58.6,192.5
58.78,37.5
58.96,19.1667
59.14,3.33333
59.32,11.6667
59.5,10
59.68,16.6667
59.86,12.5
60,13.3333