File: XRD_graph/XRD_data/Li2.5ZnSn3O8_20241112.txt
2theta,Intensity
10,4
10.18,6.66667
10.36,4
10.54,5.33333
10.72,6
10.9,5.33333
11.08,8
11.26,8
11.44,6.66667
11.62,8
11.8,5.33333
11.98,6.66667
12.16,7.33333
12.34,10
12.52,8
12.7,8.66667
12.88,9.33333
13.06,26
13.24,12.6667
13.42,8
13.6,7.33333
13.78,4
13.96,7.33333
14.14,7.33333
14.32,8.66667
14.5,8.66667
14.68,3.33333
14.86,11.3333
15.04,10
15.22,4.66667
15.4,10
15.58,10
15.76,8.66667
15.94,12
16.12,10
16.3,11.3333
16.48,19.3333
16.66,37.3333
16.84,46
17.02,22.6667
17.2,22
17.38,20
17.56,22
17.74,78
17.92,88
18.1,16.6667
18.28,11.3333
18.46,10
18.64,16
18.82,46
19,190
19.18,53.3333
19.36,146.667
19.54,28
19.72,15.3333
19.9,14
20.08,13.3333
20.26,27.3333
20.44,24.6667
20.62,11.3333
20.8,14.6667
20.98,14
21.16,32
21.34,190
21.52,56
21.7,14.6667
21.88,14.6667
22.06,12.6667
22.24,9.33333
22.42,10.6667
22.6,7.33333
22.78,10
22.96,5.33333
23.14,11.3333
23.32,10.6667
23.5,11.3333
23.68,10.6667
23.86,8
24.04,10
24.22,18
24.4,34
24.58,338.667
24.76,100.667
24.94,26
25.12,14
25.3,10
25.48,13.3333
25.66,24
25.84,43.3333
26.02,15.3333
26.2,20
26.38,41.3333
26.56,134
26.74,18
26.92,10
27.1,13.3333
27.28,68.6667
27.46,24.6667
27.64,12.6667
27.82,12.6667
28,10
28.18,12.6667
28.36,11.3333
28.54,10
28.72,24
28.9,14.6667
29.08,14.6667
29.26,85.3333
29.44,47.3333
29.62,14.6667
29.8,10.6667
29.98,11.3333
30.16,8.66667
30.34,6.66667
30.52,10
30.7,8.66667
30.88,8
31.06,10
31.24,6.66667
31.42,17.3333
31.6,62
31.78,55.3333
31.96,425.333
32.14,80.6667
32.32,18.6667
32.5,10.6667
32.68,10
32.86,12.6667
33.04,9.33333
33.22,8.66667
33.4,26.6667
33.58,48
33.76,15.3333
33.94,112
34.12,100
34.3,57.3333
34.48,196.667
34.66,450
34.84,52.6667
35.02,44.6667
35.2,356
35.38,156.667
35.56,23.3333
35.74,16
35.92,22.6667
36.1,18
36.28,85.3333
36.46,16
36.64,18.6667
36.82,9.33333
37,6.66667
37.18,7.33333
37.36,7.33333
37.54,8.66667
37.72,23.3333
37.9,8.66667
38.08,5.33333
38.26,9.33333
38.44,9.33333
38.62,38.6667
38.8,66.6667
38.98,11.3333
39.16,10.6667
39.34,7.33333
39.52,21.3333
39.7,8
39.88,8
40.06,14
40.24,12
40.42,13.3333
40.6,30
40.78,16
40.96,4.66667
41.14,9.33333
41.32,9.33333
41.5,39.3333
41.68,26.6667
41.86,32
42.04,10
42.22,4.66667
42.4,2.66667
42.58,7.33333
42.76,2.66667
42.94,6
43.12,5.33333
43.3,5.33333
43.48,8.66667
43.66,32
43.84,40.6667
44.02,146.667
44.2,23.3333
44.38,8.66667
44.56,8.66667
44.74,6.66667
44.92,8
45.1,24.6667
45.28,10
45.46,13.3333
45.64,16.6667
45.82,17.3333
46,8
46.18,6.66667
46.36,8.66667
46.54,26.6667
46.72,8.66667
46.9,6
47.08,4.66667
47.26,5.33333
47.44,11.3333
47.62,5.33333
47.8,4.66667
47.98,6.66667
48.16,4
48.34,8
48.52,26
48.7,16
48.88,10.6667
49.06,19.3333
49.24,61.3333
49.42,79.3333
49.6,19.3333
49.78,10.6667
49.96,10.6667
50.14,22
50.32,26
50.5,30
50.68,99.3333
50.86,36
51.04,14.6667
51.22,6
51.4,6
51.58,6
51.76,7.33333
51.94,6
52.12,20.6667
52.3,14.6667
52.48,8.66667
52.66,8.66667
52.84,9.33333
53.02,12
53.2,18.6667
53.38,20
53.56,26
53.74,126
53.92,134.667
54.1,46.6667
54.28,10.6667
54.46,8.66667
54.64,10
54.82,18.6667
55,10
55.18,11.3333
55.36,17.3333
55.54,107.333
55.72,75.3333
55.9,24.6667
56.08,6.66667
56.26,10
56.44,8.66667
56.62,17.3333
56.8,10.6667
56.98,11.3333
57.16,4.66667
57.34,2
57.52,7.33333
57.7,9.33333
57.88,22
58.06,20
58.24,98.6667
58.42,191.333
58.6,74
58.78,16
58.96,10.6667
59.14,10.6667
59.32,12
59.5,16
59.68,20
59.86,10
60,8