File: XRD_graph/XRD_data/Li2ZnSn3O8_XRD/Li1.8Ca0.2ZnSn3O8_20240909.txt
2theta,Intensity
10,3.33333
10.18,5
10.36,4.16667
10.54,8.33333
10.72,4.16667
10.9,7.5
11.08,5
11.26,4.16667
11.44,5
11.62,7.5
11.8,6.66667
11.98,7.5
12.16,5.83333
12.34,4.16667
12.52,8.33333
12.7,6.66667
12.88,5
13.06,7.5
13.24,6.66667
13.42,3.33333
13.6,2.5
13.78,3.33333
13.96,3.33333
14.14,5
14.32,6.66667
14.5,7.5
14.68,8.33333
14.86,4.16667
15.04,11.6667
15.22,9.16667
15.4,2.5
15.58,6.66667
15.76,5
15.94,5
16.12,6.66667
16.3,2.5
16.48,8.33333
16.66,11.6667
16.84,5.83333
17.02,4.16667
17.2,5
17.38,5.83333
17.56,5.83333
17.74,7.5
17.92,10.8333
18.1,5
18.28,5.83333
18.46,6.66667
18.64,5.83333
18.82,9.16667
19,13.3333
19.18,4.16667
19.36,12.5
19.54,7.5
19.72,4.16667
19.9,10
20.08,5.83333
20.26,5
20.44,5
20.62,5
20.8,5.83333
20.98,5
21.16,5.83333
21.34,15
21.52,9.16667
21.7,7.5
21.88,4.16667
22.06,5.83333
22.24,7.5
22.42,5.83333
22.6,6.66667
22.78,8.33333
22.96,4.16667
23.14,5
23.32,5
23.5,5.83333
23.68,5.83333
23.86,3.33333
24.04,4.16667
24.22,5.83333
24.4,10
24.58,10.8333
24.76,14.1667
24.94,5
25.12,6.66667
25.3,7.5
25.48,4.16667
25.66,8.33333
25.84,7.5
26.02,5.83333
26.2,9.16667
26.38,10.8333
26.56,30
26.74,10
26.92,4.16667
27.1,9.16667
27.28,9.16667
27.46,10.8333
27.64,1.66667
27.82,4.16667
28,3.33333
28.18,5
28.36,5
28.54,3.33333
28.72,6.66667
28.9,5
29.08,5.83333
29.26,4.16667
29.44,9.16667
29.62,5.83333
29.8,5.83333
29.98,2.5
30.16,7.5
30.34,5
30.52,7.5
30.7,4.16667
30.88,4.16667
31.06,3.33333
31.24,5.83333
31.42,8.33333
31.6,9.16667
31.78,6.66667
31.96,32.5
32.14,13.3333
32.32,8.33333
32.5,5.83333
32.68,5
32.86,7.5
33.04,3.33333
33.22,5
33.4,5.83333
33.58,11.6667
33.76,10.8333
33.94,17.5
34.12,15
34.3,8.33333
34.48,22.5
34.66,46.6667
34.84,6.66667
35.02,8.33333
35.2,30
35.38,12.5
35.56,10
35.74,3.33333
35.92,4.16667
36.1,1.66667
36.28,8.33333
36.46,5
36.64,5
36.82,3.33333
37,4.16667
37.18,4.16667
37.36,3.33333
37.54,6.66667
37.72,8.33333
37.9,8.33333
38.08,3.33333
38.26,3.33333
38.44,2.5
38.62,10
38.8,10.8333
38.98,5.83333
39.16,3.33333
39.34,4.16667
39.52,5
39.7,5.83333
39.88,3.33333
40.06,7.5
40.24,3.33333
40.42,5
40.6,5
40.78,5.83333
40.96,2.5
41.14,5
41.32,5
41.5,4.16667
41.68,5
41.86,2.5
42.04,3.33333
42.22,2.5
42.4,6.66667
42.58,5
42.76,4.16667
42.94,6.66667
43.12,5.83333
43.3,4.16667
43.48,4.16667
43.66,11.6667
43.84,8.33333
44.02,19.1667
44.2,5.83333
44.38,5
44.56,5
44.74,6.66667
44.92,4.16667
45.1,5.83333
45.28,2.5
45.46,5.83333
45.64,5
45.82,6.66667
46,5
46.18,2.5
46.36,7.5
46.54,6.66667
46.72,3.33333
46.9,5
47.08,2.5
47.26,7.5
47.44,5
47.62,5.83333
47.8,2.5
47.98,5
48.16,5
48.34,3.33333
48.52,7.5
48.7,8.33333
48.88,5
49.06,6.66667
49.24,12.5
49.42,16.6667
49.6,8.33333
49.78,6.66667
49.96,6.66667
50.14,7.5
50.32,10
50.5,5.83333
50.68,19.1667
50.86,11.6667
51.04,5.83333
51.22,5.83333
51.4,4.16667
51.58,1.66667
51.76,15
51.94,10
52.12,6.66667
52.3,5
52.48,5
52.66,7.5
52.84,5
53.02,4.16667
53.2,4.16667
53.38,5.83333
53.56,7.5
53.74,21.6667
53.92,17.5
54.1,11.6667
54.28,5.83333
54.46,4.16667
54.64,6.66667
54.82,10
55,5.83333
55.18,5
55.36,5.83333
55.54,19.1667
55.72,21.6667
55.9,4.16667
56.08,6.66667
56.26,3.33333
56.44,10.8333
56.62,8.33333
56.8,8.33333
56.98,9.16667
57.16,8.33333
57.34,7.5
57.52,7.5
57.7,12.5
57.88,10.8333
58.06,7.5
58.24,20
58.42,41.6667
58.6,18.3333
58.78,6.66667
58.96,5
59.14,10.8333
59.32,5
59.5,6.66667
59.68,7.5
59.86,7.5
60,5