File: XRD_graph/XRD_data/Li2ZnSn3O8_XRD/Li2.5Zn0.5Ga0.5Sn3O8_1doyaki_20241211.txt
2theta,Intensity
10,6.66667
10.18,5
10.36,4.16667
10.54,5
10.72,5
10.9,9.16667
11.08,5.83333
11.26,5
11.44,4.16667
11.62,6.66667
11.8,3.33333
11.98,4.16667
12.16,2.5
12.34,5
12.52,10.8333
12.7,9.16667
12.88,7.5
13.06,11.6667
13.24,23.3333
13.42,8.33333
13.6,8.33333
13.78,5
13.96,9.16667
14.14,5
14.32,3.33333
14.5,5
14.68,4.16667
14.86,6.66667
15.04,2.5
15.22,2.5
15.4,12.5
15.58,7.5
15.76,7.5
15.94,4.16667
16.12,13.3333
16.3,9.16667
16.48,6.66667
16.66,11.6667
16.84,26.6667
17.02,47.5
17.2,14.1667
17.38,17.5
17.56,15.8333
17.74,16.6667
17.92,72.5
18.1,50
18.28,14.1667
18.46,13.3333
18.64,12.5
18.82,11.6667
19,36.6667
19.18,252.5
19.36,49.1667
19.54,122.5
19.72,40
19.9,10
20.08,8.33333
20.26,13.3333
20.44,43.3333
20.62,18.3333
20.8,7.5
20.98,13.3333
21.16,12.5
21.34,20
21.52,140
21.7,70.8333
21.88,14.1667
22.06,10
22.24,8.33333
22.42,6.66667
22.6,8.33333
22.78,9.16667
22.96,6.66667
23.14,9.16667
23.32,2.5
23.5,11.6667
23.68,5
23.86,7.5
24.04,5
24.22,11.6667
24.4,9.16667
24.58,29.1667
24.76,221.667
24.94,111.667
25.12,19.1667
25.3,10
25.48,10.8333
25.66,6.66667
25.84,15
26.02,25.8333
26.2,16.6667
26.38,15.8333
26.56,107.5
26.74,128.333
26.92,15.8333
27.1,10.8333
27.28,10
27.46,23.3333
27.64,49.1667
27.82,7.5
28,7.5
28.18,5
28.36,6.66667
28.54,8.33333
28.72,6.66667
28.9,18.3333
29.08,5.83333
29.26,8.33333
29.44,16.6667
29.62,76.6667
29.8,12.5
29.98,8.33333
30.16,10
30.34,10
30.52,6.66667
30.7,9.16667
30.88,5
31.06,7.5
31.24,9.16667
31.42,11.6667
31.6,12.5
31.78,55.8333
31.96,51.6667
32.14,296.667
32.32,100.833
32.5,15
32.68,10.8333
32.86,8.33333
33.04,8.33333
33.22,9.16667
33.4,5
33.58,20.8333
33.76,45.8333
33.94,92.5
34.12,27.5
34.3,155.833
34.48,31.6667
34.66,48.3333
34.84,515.833
35.02,92.5
35.2,25.8333
35.38,72.5
35.56,330.833
35.74,38.3333
35.92,15
36.1,10.8333
36.28,15.8333
36.46,83.3333
36.64,19.1667
36.82,10.8333
37,8.33333
37.18,4.16667
37.36,5.83333
37.54,5
37.72,10.8333
37.9,40
38.08,40.8333
38.26,8.33333
38.44,6.66667
38.62,5
38.8,11.6667
38.98,88.3333
39.16,36.6667
39.34,4.16667
39.52,8.33333
39.7,15
39.88,21.6667
40.06,5
40.24,16.6667
40.42,9.16667
40.6,10
40.78,18.3333
40.96,25.8333
41.14,5
41.32,4.16667
41.5,6.66667
41.68,24.1667
41.86,18.3333
42.04,3.33333
42.22,4.16667
42.4,2.5
42.58,5.83333
42.76,7.5
42.94,5.83333
43.12,3.33333
43.3,5
43.48,5.83333
43.66,4.16667
43.84,7.5
44.02,21.6667
44.2,112.5
44.38,104.167
44.56,15
44.74,7.5
44.92,6.66667
45.1,4.16667
45.28,12.5
45.46,17.5
45.64,9.16667
45.82,9.16667
46,10.8333
46.18,5
46.36,2.5
46.54,5.83333
46.72,5.83333
46.9,31.6667
47.08,6.66667
47.26,4.16667
47.44,6.66667
47.62,10
47.8,8.33333
47.98,3.33333
48.16,2.5
48.34,5
48.52,2.5
48.7,8.33333
48.88,29.1667
49.06,8.33333
49.24,11.6667
49.42,28.3333
49.6,54.1667
49.78,59.1667
49.96,10.8333
50.14,10
50.32,9.16667
50.5,25
50.68,19.1667
50.86,86.6667
51.04,74.1667
51.22,16.6667
51.4,10.8333
51.58,10
51.76,47.5
51.94,55
52.12,9.16667
52.3,9.16667
52.48,19.1667
52.66,15
52.84,5
53.02,5
53.2,6.66667
53.38,7.5
53.56,19.1667
53.74,15.8333
53.92,25
54.1,149.167
54.28,112.5
54.46,39.1667
54.64,12.5
54.82,28.3333
55,20
55.18,13.3333
55.36,7.5
55.54,10.8333
55.72,8.33333
55.9,93.3333
56.08,80
56.26,9.16667
56.44,7.5
56.62,8.33333
56.8,16.6667
56.98,21.6667
57.16,9.16667
57.34,10
57.52,12.5
57.7,2.5
57.88,15.8333
58.06,27.5
58.24,26.6667
58.42,14.1667
58.6,195.833
58.78,146.667
58.96,30
59.14,6.66667
59.32,7.5
59.5,10
59.68,7.5
59.86,29.1667
60,20.8333