File: XRD_graph/XRD_data/Li2ZnSn3O8_XRD/Li2.5ZnSn2.4In0.6O8_20250127.txt
2theta,Intensity
10,7.33333
10.18,6.66667
10.36,6.66667
10.54,8
10.72,6
10.9,9.33333
11.08,8
11.26,4
11.44,5.33333
11.62,8
11.8,8.66667
11.98,8
12.16,9.33333
12.34,6
12.52,7.33333
12.7,7.33333
12.88,8.66667
13.06,9.33333
13.24,7.33333
13.42,8.66667
13.6,8
13.78,8.66667
13.96,3.33333
14.14,7.33333
14.32,10.6667
14.5,4
14.68,4
14.86,10.6667
15.04,4
15.22,11.3333
15.4,6.66667
15.58,10.6667
15.76,12.6667
15.94,8
16.12,21.3333
16.3,14.6667
16.48,17.3333
16.66,42
16.84,18
17.02,20
17.2,21.3333
17.38,22.6667
17.56,36.6667
17.74,137.333
17.92,133.333
18.1,26
18.28,16
18.46,16
18.64,24.6667
18.82,112
19,210.667
19.18,124
19.36,80
19.54,30
19.72,20
19.9,22
20.08,16.6667
20.26,24.6667
20.44,20
20.62,18.6667
20.8,14
20.98,22
21.16,59.3333
21.34,45.3333
21.52,18
21.7,14
21.88,16.6667
22.06,12.6667
22.24,10.6667
22.42,12.6667
22.6,17.3333
22.78,13.3333
22.96,16
23.14,13.3333
23.32,8.66667
23.5,10.6667
23.68,8.66667
23.86,14
24.04,13.3333
24.22,18.6667
24.4,123.333
24.58,334
24.76,26.6667
24.94,20.6667
25.12,10.6667
25.3,13.3333
25.48,16.6667
25.66,20
25.84,12
26.02,11.3333
26.2,12.6667
26.38,48.6667
26.56,38.6667
26.74,14.6667
26.92,20.6667
27.1,30.6667
27.28,33.3333
27.46,15.3333
27.64,12.6667
27.82,12
28,12
28.18,16.6667
28.36,14.6667
28.54,16.6667
28.72,13.3333
28.9,14.6667
29.08,50
29.26,40.6667
29.44,16
29.62,16.6667
29.8,13.3333
29.98,12
30.16,13.3333
30.34,14.6667
30.52,9.33333
30.7,14
30.88,9.33333
31.06,12
31.24,12
31.42,32.6667
31.6,62.6667
31.78,279.333
31.96,201.333
32.14,26.6667
32.32,12
32.5,13.3333
32.68,14.6667
32.86,18
33.04,16.6667
33.22,32.6667
33.4,35.3333
33.58,45.3333
33.76,238
33.94,81.3333
34.12,55.3333
34.3,244.667
34.48,404.667
34.66,96
34.84,85.3333
35.02,425.333
35.2,86.6667
35.38,30
35.56,40
35.74,36
35.92,36
36.1,52
36.28,59.3333
36.46,12
36.64,11.3333
36.82,6.66667
37,8
37.18,8.66667
37.36,10
37.54,19.3333
37.72,13.3333
37.9,16
38.08,16.6667
38.26,13.3333
38.44,58
38.62,50.6667
38.8,13.3333
38.98,12.6667
39.16,14
39.34,15.3333
39.52,7.33333
39.7,13.3333
39.88,8.66667
40.06,5.33333
40.24,11.3333
40.42,15.3333
40.6,12
40.78,11.3333
40.96,8.66667
41.14,7.33333
41.32,16.6667
41.5,15.3333
41.68,37.3333
41.86,64.6667
42.04,15.3333
42.22,8
42.4,4.66667
42.58,6
42.76,8
42.94,12.6667
43.12,14.6667
43.3,22
43.48,20
43.66,58
43.84,118.667
44.02,25.3333
44.2,11.3333
44.38,9.33333
44.56,6
44.74,9.33333
44.92,10.6667
45.1,9.33333
45.28,13.3333
45.46,10
45.64,8.66667
45.82,26.6667
46,15.3333
46.18,22.6667
46.36,24.6667
46.54,8.66667
46.72,6
46.9,7.33333
47.08,8.66667
47.26,9.33333
47.44,10.6667
47.62,7.33333
47.8,9.33333
47.98,9.33333
48.16,13.3333
48.34,16.6667
48.52,10.6667
48.7,12.6667
48.88,49.3333
49.06,104.667
49.24,41.3333
49.42,13.3333
49.6,12.6667
49.78,22
49.96,16
50.14,16.6667
50.32,62.6667
50.5,74
50.68,13.3333
50.86,10.6667
51.04,9.33333
51.22,7.33333
51.4,8.66667
51.58,7.33333
51.76,15.3333
51.94,11.3333
52.12,8.66667
52.3,6
52.48,10
52.66,12
52.84,16
53.02,14
53.2,37.3333
53.38,76
53.56,129.333
53.74,38.6667
53.92,13.3333
54.1,15.3333
54.28,12
54.46,16
54.64,11.3333
54.82,14
55,25.3333
55.18,86
55.36,55.3333
55.54,38.6667
55.72,29.3333
55.9,32.6667
56.08,26
56.26,20
56.44,11.3333
56.62,9.33333
56.8,8.66667
56.98,10.6667
57.16,19.3333
57.34,47.3333
57.52,32
57.7,18
57.88,46.6667
58.06,266
58.24,134.667
58.42,18.6667
58.6,14
58.78,10
58.96,15.3333
59.14,22
59.32,12
59.5,16.6667
59.68,12
59.86,12.6667
60,18.6667