File: XRD_graph/XRD_data/Li2ZnSn3O8_XRD/Li2.5Zn0.8Ga0.2Sn3O8_1doyaki_20250127.txt
2theta,Intensity
10,6
10.18,6
10.36,7
10.54,4
10.72,10
10.9,9
11.08,7
11.26,6
11.44,6
11.62,7
11.8,8
11.98,6
12.16,4
12.34,11
12.52,7
12.7,6
12.88,7
13.06,12
13.24,25
13.42,5
13.6,5
13.78,6
13.96,5
14.14,5
14.32,7
14.5,5
14.68,13
14.86,4
15.04,8
15.22,5
15.4,2
15.58,4
15.76,4
15.94,6
16.12,12
16.3,8
16.48,14
16.66,19
16.84,54
17.02,15
17.2,14
17.38,16
17.56,16
17.74,35
17.92,103
18.1,23
18.28,13
18.46,13
18.64,14
18.82,20
19,105
19.18,275
19.36,62
19.54,161
19.72,14
19.9,10
20.08,12
20.26,18
20.44,44
20.62,10
20.8,10
20.98,9
21.16,13
21.34,62
21.52,244
21.7,30
21.88,12
22.06,13
22.24,10
22.42,10
22.6,9
22.78,6
22.96,9
23.14,9
23.32,6
23.5,9
23.68,7
23.86,8
24.04,8
24.22,10
24.4,20
24.58,59
24.76,373
24.94,30
25.12,19
25.3,9
25.48,6
25.66,19
25.84,28
26.02,22
26.2,9
26.38,13
26.56,66
26.74,76
26.92,13
27.1,12
27.28,16
27.46,66
27.64,18
27.82,6
28,4
28.18,7
28.36,7
28.54,14
28.72,8
28.9,17
29.08,10
29.26,20
29.44,98
29.62,23
29.8,9
29.98,9
30.16,6
30.34,9
30.52,8
30.7,9
30.88,8
31.06,6
31.24,7
31.42,9
31.6,35
31.78,78
31.96,107
32.14,429
32.32,30
32.5,11
32.68,9
32.86,12
33.04,9
33.22,9
33.4,13
33.58,61
33.76,22
33.94,16
34.12,162
34.3,72
34.48,44
34.66,374
34.84,306
35.02,41
35.2,54
35.38,456
35.56,80
35.74,24
35.92,15
36.1,12
36.28,33
36.46,70
36.64,11
36.82,12
37,6
37.18,8
37.36,7
37.54,3
37.72,19
37.9,33
38.08,2
38.26,6
38.44,6
38.62,7
38.8,73
38.98,58
39.16,13
39.34,12
39.52,11
39.7,24
39.88,8
40.06,9
40.24,17
40.42,9
40.6,10
40.78,44
40.96,8
41.14,7
41.32,3
41.5,15
41.68,34
41.86,12
42.04,7
42.22,5
42.4,4
42.58,5
42.76,5
42.94,5
43.12,2
43.3,5
43.48,6
43.66,8
43.84,46
44.02,67
44.2,149
44.38,21
44.56,12
44.74,5
44.92,6
45.1,7
45.28,23
45.46,12
45.64,9
45.82,8
46,7
46.18,4
46.36,6
46.54,7
46.72,28
46.9,9
47.08,6
47.26,6
47.44,11
47.62,13
47.8,6
47.98,4
48.16,7
48.34,6
48.52,7
48.7,26
48.88,14
49.06,8
49.24,36
49.42,61
49.6,80
49.78,19
49.96,9
50.14,15
50.32,22
50.5,20
50.68,42
50.86,113
51.04,37
51.22,15
51.4,7
51.58,10
51.76,8
51.94,6
52.12,6
52.3,20
52.48,11
52.66,6
52.84,5
53.02,6
53.2,11
53.38,24
53.56,20
53.74,35
53.92,163
54.1,134
54.28,42
54.46,13
54.64,10
54.82,20
55,18
55.18,9
55.36,8
55.54,13
55.72,121
55.9,93
56.08,17
56.26,9
56.44,5
56.62,15
56.8,26
56.98,13
57.16,9
57.34,8
57.52,7
57.7,4
57.88,15
58.06,21
58.24,23
58.42,170
58.6,189
58.78,39
58.96,13
59.14,2
59.32,9
59.5,17
59.68,15
59.86,20
60,22