File: XRD_graph/XRD_data/Li2ZnSn3O8_XRD/Li2.5Zn0.8Ga0.2Sn3O8_Ar2ndyaki_20241122.txt
2theta,Intensity
10,5.33333
10.18,4.66667
10.36,5.33333
10.54,6.66667
10.72,8
10.9,5.33333
11.08,6.66667
11.26,4.66667
11.44,8
11.62,6
11.8,5.33333
11.98,6
12.16,7.33333
12.34,8
12.52,12.6667
12.7,8
12.88,8
13.06,18
13.24,24
13.42,5.33333
13.6,10.6667
13.78,6.66667
13.96,9.33333
14.14,6.66667
14.32,8.66667
14.5,6
14.68,6.66667
14.86,8.66667
15.04,8.66667
15.22,8.66667
15.4,11.3333
15.58,6.66667
15.76,6.66667
15.94,9.33333
16.12,14.6667
16.3,9.33333
16.48,12
16.66,25.3333
16.84,66
17.02,17.3333
17.2,17.3333
17.38,22.6667
17.56,17.3333
17.74,43.3333
17.92,124
18.1,22
18.28,11.3333
18.46,11.3333
18.64,15.3333
18.82,32
19,154
19.18,166.667
19.36,89.3333
19.54,128.667
19.72,18
19.9,12
20.08,12
20.26,16.6667
20.44,38
20.62,10
20.8,12.6667
20.98,12
21.16,20.6667
21.34,89.3333
21.52,208
21.7,23.3333
21.88,13.3333
22.06,10.6667
22.24,7.33333
22.42,11.3333
22.6,10.6667
22.78,5.33333
22.96,8
23.14,4.66667
23.32,10
23.5,6
23.68,6.66667
23.86,7.33333
24.04,11.3333
24.22,10.6667
24.4,24.6667
24.58,135.333
24.76,333.333
24.94,23.3333
25.12,14
25.3,7.33333
25.48,10
25.66,11.3333
25.84,33.3333
26.02,18
26.2,15.3333
26.38,22.6667
26.56,100.667
26.74,59.3333
26.92,13.3333
27.1,10.6667
27.28,18
27.46,69.3333
27.64,13.3333
27.82,7.33333
28,10.6667
28.18,6.66667
28.36,12.6667
28.54,5.33333
28.72,14
28.9,14
29.08,9.33333
29.26,22.6667
29.44,94
29.62,13.3333
29.8,9.33333
29.98,9.33333
30.16,10
30.34,10.6667
30.52,7.33333
30.7,8
30.88,6.66667
31.06,6
31.24,7.33333
31.42,14.6667
31.6,49.3333
31.78,56.6667
31.96,210.667
32.14,270.667
32.32,26.6667
32.5,6.66667
32.68,10.6667
32.86,9.33333
33.04,10
33.22,14
33.4,14.6667
33.58,63.3333
33.76,22.6667
33.94,24
34.12,200
34.3,50
34.48,52
34.66,565.333
34.84,182
35.02,34
35.2,86
35.38,440
35.56,46.6667
35.74,14.6667
35.92,14
36.1,16
36.28,54
36.46,48
36.64,10
36.82,10.6667
37,5.33333
37.18,9.33333
37.36,6
37.54,4.66667
37.72,20
37.9,15.3333
38.08,4.66667
38.26,4
38.44,10.6667
38.62,11.3333
38.8,94
38.98,38
39.16,8.66667
39.34,9.33333
39.52,16.6667
39.7,24
39.88,6.66667
40.06,10.6667
40.24,5.33333
40.42,4
40.6,25.3333
40.78,32.6667
40.96,8
41.14,5.33333
41.32,14.6667
41.5,24
41.68,30.6667
41.86,20
42.04,9.33333
42.22,7.33333
42.4,6.66667
42.58,7.33333
42.76,5.33333
42.94,2.66667
43.12,6
43.3,4
43.48,5.33333
43.66,8.66667
43.84,30.6667
44.02,122
44.2,124
44.38,17.3333
44.56,4.66667
44.74,6.66667
44.92,6
45.1,17.3333
45.28,23.3333
45.46,9.33333
45.64,14.6667
45.82,12.6667
46,9.33333
46.18,6
46.36,6.66667
46.54,7.33333
46.72,29.3333
46.9,10
47.08,7.33333
47.26,4
47.44,12
47.62,10
47.8,4.66667
47.98,4.66667
48.16,8
48.34,4
48.52,9.33333
48.7,25.3333
48.88,11.3333
49.06,8
49.24,36
49.42,92
49.6,68
49.78,11.3333
49.96,7.33333
50.14,16
50.32,28
50.5,17.3333
50.68,76
50.86,82.6667
51.04,25.3333
51.22,13.3333
51.4,8
51.58,6.66667
51.76,6
51.94,5.33333
52.12,6.66667
52.3,24.6667
52.48,7.33333
52.66,3.33333
52.84,4
53.02,8
53.2,14
53.38,20
53.56,13.3333
53.74,30
53.92,215.333
54.1,144
54.28,36
54.46,11.3333
54.64,6.66667
54.82,15.3333
55,21.3333
55.18,7.33333
55.36,12
55.54,20
55.72,135.333
55.9,73.3333
56.08,16
56.26,11.3333
56.44,12
56.62,15.3333
56.8,20
56.98,8
57.16,13.3333
57.34,7.33333
57.52,6.66667
57.7,10.6667
57.88,16.6667
58.06,16
58.24,18
58.42,261.333
58.6,195.333
58.78,34
58.96,11.3333
59.14,5.33333
59.32,8.66667
59.5,10
59.68,20.6667
59.86,18.6667
60,3.33333