File: XRD_graph/XRD_data/Li2ZnSn3O8_XRD/Li2.5Zn0.8Ga0.2Sn3O8_H2kangen.txt
2theta,Intensity
10,7.33333
10.18,9.33333
10.36,4.66667
10.54,8.66667
10.72,6.66667
10.9,9.33333
11.08,8.66667
11.26,7.33333
11.44,8
11.62,6.66667
11.8,5.33333
11.98,5.33333
12.16,9.33333
12.34,10
12.52,8.66667
12.7,14
12.88,10.6667
13.06,13.3333
13.24,29.3333
13.42,8.66667
13.6,7.33333
13.78,6.66667
13.96,9.33333
14.14,6.66667
14.32,4.66667
14.5,2
14.68,6
14.86,5.33333
15.04,6
15.22,6.66667
15.4,8.66667
15.58,10
15.76,10
15.94,10
16.12,10
16.3,10
16.48,11.3333
16.66,14.6667
16.84,59.3333
17.02,18.6667
17.2,14.6667
17.38,17.3333
17.56,19.3333
17.74,32
17.92,136
18.1,41.3333
18.28,19.3333
18.46,11.3333
18.64,12.6667
18.82,18
19,85.3333
19.18,258
19.36,54
19.54,180
19.72,20
19.9,16
20.08,18
20.26,15.3333
20.44,42.6667
20.62,14
20.8,8
20.98,12
21.16,14.6667
21.34,58
21.52,239.333
21.7,27.3333
21.88,13.3333
22.06,16
22.24,8.66667
22.42,12
22.6,11.3333
22.78,7.33333
22.96,8
23.14,9.33333
23.32,7.33333
23.5,6.66667
23.68,5.33333
23.86,8.66667
24.04,8
24.22,12
24.4,14.6667
24.58,64
24.76,411.333
24.94,31.3333
25.12,12
25.3,13.3333
25.48,15.3333
25.66,10
25.84,21.3333
26.02,27.3333
26.2,8.66667
26.38,20
26.56,64
26.74,76
26.92,12.6667
27.1,6.66667
27.28,14
27.46,62.6667
27.64,12.6667
27.82,14
28,4.66667
28.18,8.66667
28.36,6.66667
28.54,10
28.72,14.6667
28.9,16
29.08,10
29.26,18
29.44,87.3333
29.62,26
29.8,12.6667
29.98,9.33333
30.16,12.6667
30.34,8.66667
30.52,8.66667
30.7,6.66667
30.88,11.3333
31.06,10.6667
31.24,11.3333
31.42,10
31.6,22.6667
31.78,69.3333
31.96,86.6667
32.14,434
32.32,34.6667
32.5,18
32.68,9.33333
32.86,10.6667
33.04,8.66667
33.22,10.6667
33.4,12.6667
33.58,47.3333
33.76,28.6667
33.94,14
34.12,130.667
34.3,93.3333
34.48,47.3333
34.66,292.667
34.84,326.667
35.02,36
35.2,46
35.38,421.333
35.56,92
35.74,26
35.92,20
36.1,16
36.28,21.3333
36.46,72
36.64,10.6667
36.82,16.6667
37,10.6667
37.18,4.66667
37.36,6.66667
37.54,5.33333
37.72,10.6667
37.9,30.6667
38.08,6
38.26,5.33333
38.44,6
38.62,6.66667
38.8,61.3333
38.98,65.3333
39.16,11.3333
39.34,6
39.52,8
39.7,30
39.88,8.66667
40.06,11.3333
40.24,10
40.42,10
40.6,9.33333
40.78,36
40.96,6.66667
41.14,4.66667
41.32,8
41.5,20
41.68,38
41.86,32
42.04,22.6667
42.22,6
42.4,9.33333
42.58,6
42.76,6
42.94,6
43.12,7.33333
43.3,4.66667
43.48,5.33333
43.66,8
43.84,25.3333
44.02,40
44.2,131.333
44.38,23.3333
44.56,8.66667
44.74,4.66667
44.92,7.33333
45.1,12
45.28,22.6667
45.46,8.66667
45.64,6.66667
45.82,16
46,12
46.18,5.33333
46.36,6
46.54,8
46.72,28.6667
46.9,14
47.08,5.33333
47.26,4.66667
47.44,8
47.62,10.6667
47.8,4
47.98,6
48.16,6
48.34,5.33333
48.52,8.66667
48.7,26
48.88,16.6667
49.06,2.66667
49.24,29.3333
49.42,52
49.6,86.6667
49.78,15.3333
49.96,8.66667
50.14,10
50.32,16.6667
50.5,25.3333
50.68,35.3333
50.86,101.333
51.04,20.6667
51.22,16
51.4,7.33333
51.58,6.66667
51.76,6
51.94,6
52.12,6
52.3,26
52.48,7.33333
52.66,4.66667
52.84,7.33333
53.02,7.33333
53.2,10.6667
53.38,24.6667
53.56,21.3333
53.74,28
53.92,128
54.1,122.667
54.28,32.6667
54.46,12.6667
54.64,6
54.82,9.33333
55,17.3333
55.18,10.6667
55.36,10
55.54,20.6667
55.72,107.333
55.9,92.6667
56.08,22
56.26,6
56.44,10
56.62,17.3333
56.8,23.3333
56.98,16
57.16,9.33333
57.34,8.66667
57.52,6.66667
57.7,3.33333
57.88,19.3333
58.06,19.3333
58.24,22.6667
58.42,133.333
58.6,174
58.78,47.3333
58.96,17.3333
59.14,10.6667
59.32,8
59.5,8.66667
59.68,19.3333
59.86,16.6667
60,17.3333