File: XRD_graph/XRD_data/Li2ZnSn3O8_XRD/Li2ZnSn3O8_2ndyaki_20241022.txt
2theta,Intensity
10,3.33333
10.18,5.83333
10.36,5.83333
10.54,6.66667
10.72,2.5
10.9,10
11.08,5
11.26,5
11.44,2.5
11.62,6.66667
11.8,3.33333
11.98,4.16667
12.16,6.66667
12.34,5.83333
12.52,7.5
12.7,5.83333
12.88,5.83333
13.06,9.16667
13.24,25
13.42,9.16667
13.6,8.33333
13.78,8.33333
13.96,5
14.14,7.5
14.32,5.83333
14.5,5
14.68,10.8333
14.86,2.5
15.04,6.66667
15.22,15
15.4,5
15.58,7.5
15.76,5.83333
15.94,5.83333
16.12,9.16667
16.3,6.66667
16.48,9.16667
16.66,18.3333
16.84,54.1667
17.02,19.1667
17.2,17.5
17.38,16.6667
17.56,13.3333
17.74,27.5
17.92,78.3333
18.1,29.1667
18.28,14.1667
18.46,9.16667
18.64,12.5
18.82,19.1667
19,75
19.18,168.333
19.36,50
19.54,116.667
19.72,15
19.9,8.33333
20.08,10
20.26,10
20.44,20.8333
20.62,10
20.8,8.33333
20.98,7.5
21.16,10.8333
21.34,40
21.52,169.167
21.7,19.1667
21.88,10.8333
22.06,5.83333
22.24,6.66667
22.42,10.8333
22.6,10
22.78,10
22.96,7.5
23.14,10
23.32,5.83333
23.5,4.16667
23.68,6.66667
23.86,9.16667
24.04,10
24.22,10
24.4,16.6667
24.58,65
24.76,341.667
24.94,32.5
25.12,20.8333
25.3,8.33333
25.48,9.16667
25.66,10
25.84,27.5
26.02,34.1667
26.2,14.1667
26.38,20
26.56,175.833
26.74,134.167
26.92,21.6667
27.1,12.5
27.28,17.5
27.46,60.8333
27.64,20
27.82,10.8333
28,9.16667
28.18,10.8333
28.36,9.16667
28.54,9.16667
28.72,10.8333
28.9,10.8333
29.08,10.8333
29.26,22.5
29.44,84.1667
29.62,24.1667
29.8,14.1667
29.98,10.8333
30.16,9.16667
30.34,7.5
30.52,10.8333
30.7,10.8333
30.88,6.66667
31.06,5.83333
31.24,6.66667
31.42,12.5
31.6,20
31.78,45
31.96,113.333
32.14,348.333
32.32,35.8333
32.5,14.1667
32.68,10.8333
32.86,7.5
33.04,6.66667
33.22,10
33.4,10
33.58,48.3333
33.76,50.8333
33.94,147.5
34.12,160.833
34.3,47.5
34.48,37.5
34.66,400
34.84,217.5
35.02,38.3333
35.2,74.1667
35.38,380
35.56,53.3333
35.74,14.1667
35.92,14.1667
36.1,12.5
36.28,30
36.46,55.8333
36.64,13.3333
36.82,14.1667
37,4.16667
37.18,4.16667
37.36,8.33333
37.54,5
37.72,16.6667
37.9,40.8333
38.08,30
38.26,10.8333
38.44,5
38.62,12.5
38.8,61.6667
38.98,40
39.16,10
39.34,6.66667
39.52,13.3333
39.7,13.3333
39.88,10
40.06,8.33333
40.24,10.8333
40.42,3.33333
40.6,11.6667
40.78,25
40.96,8.33333
41.14,5
41.32,4.16667
41.5,15.8333
41.68,26.6667
41.86,10
42.04,6.66667
42.22,5.83333
42.4,6.66667
42.58,3.33333
42.76,3.33333
42.94,6.66667
43.12,10
43.3,7.5
43.48,1.66667
43.66,10.8333
43.84,21.6667
44.02,83.3333
44.2,89.1667
44.38,10.8333
44.56,6.66667
44.74,4.16667
44.92,5.83333
45.1,12.5
45.28,21.6667
45.46,8.33333
45.64,10.8333
45.82,7.5
46,6.66667
46.18,5.83333
46.36,5.83333
46.54,7.5
46.72,17.5
46.9,7.5
47.08,2.5
47.26,4.16667
47.44,9.16667
47.62,6.66667
47.8,4.16667
47.98,4.16667
48.16,5.83333
48.34,10.8333
48.52,6.66667
48.7,14.1667
48.88,10
49.06,7.5
49.24,24.1667
49.42,88.3333
49.6,56.6667
49.78,6.66667
49.96,7.5
50.14,11.6667
50.32,16.6667
50.5,22.5
50.68,66.6667
50.86,73.3333
51.04,27.5
51.22,7.5
51.4,6.66667
51.58,7.5
51.76,62.5
51.94,75
52.12,22.5
52.3,15.8333
52.48,5.83333
52.66,9.16667
52.84,8.33333
53.02,4.16667
53.2,14.1667
53.38,15.8333
53.56,24.1667
53.74,32.5
53.92,170
54.1,92.5
54.28,19.1667
54.46,4.16667
54.64,6.66667
54.82,38.3333
55,23.3333
55.18,6.66667
55.36,10
55.54,20
55.72,100
55.9,52.5
56.08,12.5
56.26,10
56.44,10
56.62,14.1667
56.8,15.8333
56.98,6.66667
57.16,8.33333
57.34,6.66667
57.52,6.66667
57.7,10
57.88,29.1667
58.06,19.1667
58.24,24.1667
58.42,220.833
58.6,166.667
58.78,22.5
58.96,10.8333
59.14,5
59.32,10.8333
59.5,10
59.68,17.5
59.86,16.6667
60,8.33333