File: XRD_graph/XRD_data/Li2ZnSn3O8_XRD/Li2Zn08Ga02Sn3O8_20241009.txt
2theta,Intensity
10,7.5
10.18,6.66667
10.36,10
10.54,4.16667
10.72,6.66667
10.9,7.5
11.08,10.8333
11.26,8.33333
11.44,6.66667
11.62,5.83333
11.8,4.16667
11.98,10
12.16,7.5
12.34,10.8333
12.52,8.33333
12.7,13.3333
12.88,8.33333
13.06,25.8333
13.24,13.3333
13.42,14.1667
13.6,6.66667
13.78,10
13.96,12.5
14.14,6.66667
14.32,7.5
14.5,6.66667
14.68,7.5
14.86,4.16667
15.04,5
15.22,7.5
15.4,14.1667
15.58,9.16667
15.76,8.33333
15.94,8.33333
16.12,8.33333
16.3,11.6667
16.48,14.1667
16.66,30
16.84,46.6667
17.02,19.1667
17.2,22.5
17.38,21.6667
17.56,25.8333
17.74,54.1667
17.92,72.5
18.1,13.3333
18.28,12.5
18.46,15
18.64,11.6667
18.82,35
19,208.333
19.18,59.1667
19.36,114.167
19.54,44.1667
19.72,15
19.9,11.6667
20.08,11.6667
20.26,19.1667
20.44,29.1667
20.62,10
20.8,5.83333
20.98,11.6667
21.16,22.5
21.34,131.667
21.52,85
21.7,18.3333
21.88,12.5
22.06,9.16667
22.24,11.6667
22.42,10.8333
22.6,10
22.78,9.16667
22.96,7.5
23.14,11.6667
23.32,7.5
23.5,7.5
23.68,7.5
23.86,9.16667
24.04,7.5
24.22,11.6667
24.4,35.8333
24.58,216.667
24.76,183.333
24.94,29.1667
25.12,14.1667
25.3,13.3333
25.48,10.8333
25.66,17.5
25.84,46.6667
26.02,11.6667
26.2,20
26.38,81.6667
26.56,277.5
26.74,36.6667
26.92,21.6667
27.1,18.3333
27.28,31.6667
27.46,39.1667
27.64,8.33333
27.82,6.66667
28,7.5
28.18,11.6667
28.36,8.33333
28.54,12.5
28.72,14.1667
28.9,16.6667
29.08,13.3333
29.26,32.5
29.44,76.6667
29.62,12.5
29.8,9.16667
29.98,6.66667
30.16,11.6667
30.34,11.6667
30.52,10.8333
30.7,8.33333
30.88,10
31.06,9.16667
31.24,15
31.42,10.8333
31.6,64.1667
31.78,40
31.96,300
32.14,175.833
32.32,29.1667
32.5,15.8333
32.68,10
32.86,11.6667
33.04,12.5
33.22,13.3333
33.4,28.3333
33.58,60.8333
33.76,137.5
33.94,85.8333
34.12,160
34.3,40.8333
34.48,76.6667
34.66,599.167
34.84,76.6667
35.02,46.6667
35.2,188.333
35.38,294.167
35.56,36.6667
35.74,21.6667
35.92,14.1667
36.1,15
36.28,70
36.46,34.1667
36.64,13.3333
36.82,11.6667
37,10.8333
37.18,9.16667
37.36,4.16667
37.54,13.3333
37.72,30.8333
37.9,55
38.08,15
38.26,4.16667
38.44,7.5
38.62,20
38.8,109.167
38.98,24.1667
39.16,6.66667
39.34,8.33333
39.52,22.5
39.7,16.6667
39.88,5.83333
40.06,20
40.24,8.33333
40.42,10
40.6,28.3333
40.78,19.1667
40.96,6.66667
41.14,5
41.32,1.66667
41.5,23.3333
41.68,18.3333
41.86,8.33333
42.04,7.5
42.22,7.5
42.4,5.83333
42.58,8.33333
42.76,5
42.94,7.5
43.12,5.83333
43.3,5
43.48,5.83333
43.66,13.3333
43.84,30.8333
44.02,145
44.2,80.8333
44.38,15
44.56,6.66667
44.74,5
44.92,7.5
45.1,20
45.28,13.3333
45.46,8.33333
45.64,14.1667
45.82,10.8333
46,2.5
46.18,8.33333
46.36,5
46.54,15.8333
46.72,22.5
46.9,4.16667
47.08,6.66667
47.26,5
47.44,11.6667
47.62,8.33333
47.8,7.5
47.98,4.16667
48.16,4.16667
48.34,5.83333
48.52,12.5
48.7,10.8333
48.88,3.33333
49.06,7.5
49.24,42.5
49.42,101.667
49.6,54.1667
49.78,7.5
49.96,8.33333
50.14,15.8333
50.32,22.5
50.5,19.1667
50.68,101.667
50.86,66.6667
51.04,25
51.22,9.16667
51.4,10.8333
51.58,24.1667
51.76,92.5
51.94,30.8333
52.12,12.5
52.3,20
52.48,10
52.66,7.5
52.84,5
53.02,7.5
53.2,16.6667
53.38,23.3333
53.56,18.3333
53.74,40.8333
53.92,193.333
54.1,98.3333
54.28,25
54.46,12.5
54.64,29.1667
54.82,35
55,17.5
55.18,14.1667
55.36,13.3333
55.54,33.3333
55.72,115.833
55.9,48.3333
56.08,11.6667
56.26,9.16667
56.44,12.5
56.62,25
56.8,13.3333
56.98,12.5
57.16,10
57.34,5
57.52,4.16667
57.7,5.83333
57.88,25
58.06,21.6667
58.24,31.6667
58.42,260.833
58.6,190.833
58.78,36.6667
58.96,14.1667
59.14,8.33333
59.32,7.5
59.5,13.3333
59.68,18.3333
59.86,18.3333
60,12.5